3 hexa 10 10 gaussian
#n F(k) pH(k) pH(k+1) 
513.718 7.04554 7.00571 
514.26 7.05517 7.02432 
515.565 7.24281 7.2091 
516.228 7.32975 7.30019 
516.56 7.26689 7.25911 
517.094 7.50754 7.48571 
517.37 7.66642 7.63642 
517.303 7.53737 7.52353 
517.304 7.30228 7.31426 
517.525 7.30379 7.32358 
513.999 7.57925 7.38699 
514.971 7.09307 7.06931 
515.88 7.31531 7.27745 
516.526 7.48852 7.44284 
516.801 7.43739 7.41283 
517.399 7.83542 7.77461 
517.867 7.83169 7.82007 
517.755 7.55805 7.56956 
517.976 7.40823 7.44023 
517.863 7.12878 7.16718 
513.849 8.90742 7.90198 
514.842 8.05979 7.64515 
515.752 7.69898 7.54976 
516.33 7.88326 7.70199 
516.955 7.91852 7.78699 
517.378 8.08515 7.95201 
517.863 8.00651 7.9657 
518.072 7.71678 7.73695 
518.399 7.55224 7.60369 
518.389 7.27003 7.32133 
514.082 10.2171 9.94794 
515.619 8.96816 8.19229 
516.906 8.65697 8.19013 
517.388 8.60382 8.27692 
517.873 8.34074 8.22544 
518.088 8.15362 8.12769 
518.175 7.92507 7.94112 
518.399 7.79004 7.84001 
518.683 7.43469 7.50123 
518.904 7.06679 7.13052 
516.934 10.0328 9.90919 
516.921 9.65034 9.41246 
517.075 9.3173 8.90274 
518.093 8.88863 8.74971 
518.184 8.5471 8.48168 
518.314 8.28199 8.29442 
518.364 8.12101 8.15747 
518.483 7.94253 8.00396 
518.669 7.70158 7.77838 
519.104 7.39193 7.47883 
517.66 9.64477 9.50931 
518.018 9.48051 9.36896 
518.074 9.16696 9.03421 
518.505 8.84511 8.87033 
518.583 8.56153 8.64912 
518.468 8.37756 8.43132 
518.632 8.10874 8.20609 
519.015 7.82704 7.95929 
519.952 7.61397 7.81666 
520.816 7.28383 7.44641 
518.054 9.87703 9.80359 
518.41 9.7278 9.67751 
518.543 9.43571 9.41 
518.558 9.30266 9.28938 
518.644 8.99879 9.04566 
518.907 8.74318 8.93189 
518.907 8.31728 8.52553 
520.012 8.35187 8.93611 
520.749 7.99816 8.64128 
522.454 7.28015 7.58119 
518.429 9.93413 9.88398 
518.656 9.7538 9.72271 
518.528 9.59324 9.55755 
518.816 9.42562 9.4423 
519.57 9.58721 9.65672 
520.487 9.35317 9.60935 
521.237 9.58448 9.79476 
522.454 9.59143 9.87129 
522.979 8.44066 9.54335 
524.176 7.69371 8.61334 
518.026 10.2332 10.1709 
518.421 10.1533 10.1021 
518.715 9.96344 9.92739 
518.998 9.82752 9.81619 
519.606 9.79341 9.82291 
520.715 9.8666 9.9421 
521.173 10.1729 10.2008 
522.454 10.1504 10.2167 
523.648 9.8742 10.0773 
524.752 9.98051 10.1925 
518.289 10.5075 10.454 
518.717 10.1832 10.1408 
519.14 10.3928 10.3555 
519.678 9.96529 9.97301 
520.371 9.984 10.0198 
520.756 10.1647 10.1818 
521.425 10.6055 10.5866 
523.513 10.4459 10.4725 
524.573 10.5334 10.5588 
524.943 10.5744 10.5971 
